Wavelength (micron)	F2 Net System Transmission with Ks Filter (BARR MAN317A; Gemini ID Ks_G0804) (1=100%)
1.7974	0.0000
1.7979	0.0000
1.7984	0.0000
1.7989	0.0000
1.7994	0.0000
1.7999	0.0000
1.8004	0.0000
1.8009	0.0000
1.8014	0.0000
1.8019	0.0000
1.8024	0.0000
1.8029	0.0000
1.8034	0.0000
1.8039	0.0000
1.8044	0.0000
1.8049	0.0000
1.8054	0.0000
1.8059	0.0000
1.8064	0.0000
1.8069	0.0000
1.8074	0.0000
1.8079	0.0000
1.8084	0.0000
1.8089	0.0000
1.8094	0.0000
1.8099	0.0000
1.8104	0.0000
1.8109	0.0000
1.8114	0.0000
1.8119	0.0000
1.8124	0.0000
1.8129	0.0000
1.8134	0.0000
1.8139	0.0000
1.8144	0.0000
1.8149	0.0000
1.8154	0.0000
1.8159	0.0000
1.8164	0.0000
1.8169	0.0000
1.8174	0.0000
1.8179	0.0000
1.8184	0.0000
1.8189	0.0000
1.8194	0.0000
1.8199	0.0000
1.8204	0.0000
1.8209	0.0000
1.8214	0.0000
1.8219	0.0000
1.8224	0.0000
1.8229	0.0000
1.8234	0.0001
1.8239	0.0000
1.8244	0.0000
1.8249	0.0000
1.8254	0.0000
1.8259	0.0000
1.8264	0.0000
1.8269	0.0000
1.8274	0.0000
1.8279	0.0000
1.8284	0.0000
1.8289	0.0000
1.8294	0.0000
1.8299	0.0000
1.8304	0.0000
1.8309	0.0000
1.8314	0.0000
1.8319	0.0000
1.8324	0.0000
1.8329	0.0000
1.8334	0.0000
1.8339	0.0000
1.8344	0.0000
1.8349	0.0000
1.8354	0.0000
1.8359	0.0000
1.8364	0.0000
1.8369	0.0000
1.8374	0.0000
1.8379	0.0000
1.8384	0.0000
1.8389	0.0000
1.8394	0.0000
1.8399	0.0000
1.8404	0.0000
1.8409	0.0000
1.8414	0.0000
1.8419	0.0000
1.8424	0.0000
1.8429	0.0000
1.8434	0.0000
1.8439	0.0000
1.8444	0.0000
1.8449	0.0000
1.8454	0.0000
1.8459	0.0000
1.8464	0.0000
1.8469	0.0000
1.8474	0.0000
1.8479	0.0000
1.8484	0.0000
1.8489	0.0000
1.8494	0.0000
1.8499	0.0000
1.8504	0.0000
1.8509	0.0000
1.8514	0.0000
1.8519	0.0000
1.8524	0.0000
1.8529	0.0000
1.8534	0.0000
1.8539	0.0000
1.8544	0.0000
1.8549	0.0000
1.8554	0.0000
1.8559	0.0000
1.8564	0.0000
1.8569	0.0000
1.8574	0.0000
1.8579	0.0000
1.8584	0.0001
1.8589	0.0000
1.8594	0.0000
1.8599	0.0000
1.8604	0.0000
1.8609	0.0000
1.8614	0.0000
1.8619	0.0000
1.8624	0.0000
1.8629	0.0000
1.8634	0.0000
1.8639	0.0000
1.8644	0.0000
1.8649	0.0000
1.8654	0.0000
1.8659	0.0000
1.8664	0.0000
1.8669	0.0000
1.8674	0.0000
1.8679	0.0000
1.8684	0.0000
1.8689	0.0000
1.8694	0.0000
1.8699	0.0000
1.8704	0.0000
1.8709	0.0000
1.8714	0.0000
1.8719	0.0000
1.8724	0.0000
1.8729	0.0000
1.8734	0.0000
1.8739	0.0000
1.8744	0.0000
1.8749	0.0000
1.8754	0.0000
1.8759	0.0000
1.8764	0.0000
1.8769	0.0000
1.8774	0.0000
1.8779	0.0000
1.8784	0.0000
1.8789	0.0000
1.8794	0.0000
1.8799	0.0000
1.8804	0.0000
1.8809	0.0000
1.8814	0.0000
1.8819	0.0000
1.8824	0.0000
1.8829	0.0000
1.8834	0.0000
1.8839	0.0000
1.8844	0.0000
1.8849	0.0000
1.8854	0.0000
1.8859	0.0000
1.8864	0.0000
1.8869	0.0000
1.8874	0.0000
1.8879	0.0000
1.8884	0.0000
1.8889	0.0000
1.8894	0.0000
1.8899	0.0000
1.8904	0.0000
1.8909	0.0000
1.8914	0.0000
1.8919	0.0000
1.8924	0.0000
1.8929	0.0000
1.8934	0.0000
1.8939	0.0000
1.8944	0.0000
1.8949	0.0000
1.8954	0.0000
1.8959	0.0000
1.8964	0.0000
1.8969	0.0000
1.8974	0.0000
1.8979	0.0000
1.8984	0.0001
1.8989	0.0000
1.8994	0.0000
1.8999	0.0000
1.9004	0.0000
1.9009	0.0000
1.9014	0.0000
1.9019	0.0000
1.9024	0.0001
1.9029	0.0001
1.9034	0.0001
1.9039	0.0000
1.9044	0.0001
1.9049	0.0001
1.9054	0.0000
1.9059	0.0000
1.9064	0.0000
1.9069	0.0000
1.9074	0.0001
1.9079	0.0000
1.9084	0.0001
1.9089	0.0001
1.9094	0.0001
1.9099	0.0001
1.9104	0.0000
1.9109	0.0000
1.9114	0.0001
1.9119	0.0001
1.9124	0.0001
1.9129	0.0001
1.9134	0.0000
1.9139	0.0001
1.9144	0.0001
1.9149	0.0001
1.9154	0.0000
1.9159	0.0001
1.9164	0.0001
1.9169	0.0001
1.9174	0.0001
1.9179	0.0001
1.9184	0.0001
1.9189	0.0001
1.9194	0.0001
1.9199	0.0001
1.9204	0.0001
1.9209	0.0001
1.9214	0.0001
1.9219	0.0001
1.9224	0.0001
1.9229	0.0002
1.9234	0.0002
1.9239	0.0002
1.9244	0.0002
1.9249	0.0002
1.9254	0.0002
1.9259	0.0002
1.9264	0.0002
1.9269	0.0002
1.9274	0.0002
1.9279	0.0003
1.9284	0.0002
1.9289	0.0003
1.9294	0.0003
1.9299	0.0003
1.9304	0.0003
1.9309	0.0003
1.9314	0.0004
1.9319	0.0004
1.9324	0.0004
1.9329	0.0004
1.9334	0.0004
1.9339	0.0005
1.9344	0.0004
1.9349	0.0005
1.9354	0.0005
1.9359	0.0005
1.9364	0.0005
1.9369	0.0006
1.9374	0.0006
1.9379	0.0006
1.9384	0.0006
1.9389	0.0007
1.9394	0.0007
1.9399	0.0007
1.9404	0.0008
1.9409	0.0008
1.9414	0.0008
1.9419	0.0008
1.9424	0.0009
1.9429	0.0009
1.9434	0.0009
1.9439	0.0009
1.9444	0.0010
1.9449	0.0010
1.9454	0.0011
1.9459	0.0011
1.9464	0.0011
1.9469	0.0012
1.9474	0.0012
1.9479	0.0013
1.9484	0.0013
1.9489	0.0014
1.9494	0.0015
1.9499	0.0016
1.9504	0.0016
1.9509	0.0017
1.9514	0.0017
1.9519	0.0018
1.9524	0.0019
1.9529	0.0020
1.9534	0.0021
1.9539	0.0022
1.9544	0.0023
1.9549	0.0025
1.9554	0.0026
1.9559	0.0028
1.9564	0.0030
1.9569	0.0031
1.9574	0.0033
1.9579	0.0035
1.9584	0.0037
1.9589	0.0039
1.9594	0.0041
1.9599	0.0044
1.9604	0.0047
1.9609	0.0050
1.9614	0.0053
1.9619	0.0057
1.9624	0.0061
1.9629	0.0065
1.9634	0.0070
1.9639	0.0075
1.9644	0.0080
1.9649	0.0086
1.9654	0.0093
1.9659	0.0101
1.9664	0.0108
1.9669	0.0117
1.9674	0.0125
1.9679	0.0133
1.9684	0.0146
1.9689	0.0156
1.9694	0.0170
1.9699	0.0184
1.9704	0.0196
1.9709	0.0212
1.9714	0.0230
1.9719	0.0251
1.9724	0.0269
1.9729	0.0294
1.9734	0.0318
1.9739	0.0340
1.9744	0.0367
1.9749	0.0400
1.9754	0.0438
1.9759	0.0470
1.9764	0.0511
1.9769	0.0547
1.9774	0.0601
1.9779	0.0652
1.9784	0.0708
1.9789	0.0770
1.9794	0.0823
1.9799	0.0886
1.9804	0.0955
1.9809	0.1022
1.9814	0.1134
1.9819	0.1227
1.9824	0.1314
1.9829	0.1404
1.9834	0.1490
1.9839	0.1593
1.9844	0.1708
1.9849	0.1844
1.9854	0.1942
1.9859	0.2089
1.9864	0.2198
1.9869	0.2345
1.9874	0.2564
1.9879	0.2697
1.9884	0.2892
1.9889	0.3051
1.9894	0.3185
1.9899	0.3347
1.9904	0.3527
1.9909	0.3728
1.9914	0.3884
1.9919	0.4068
1.9924	0.4245
1.9929	0.4394
1.9934	0.4619
1.9939	0.4839
1.9944	0.5008
1.9949	0.5176
1.9954	0.5384
1.9959	0.5499
1.9964	0.5689
1.9969	0.5846
1.9974	0.6043
1.9979	0.6170
1.9984	0.6235
1.9989	0.6394
1.9994	0.6444
1.9999	0.6541
2.0004	0.6633
2.0009	0.6707
2.0014	0.6785
2.0019	0.6842
2.0024	0.6885
2.0029	0.6940
2.0034	0.6974
2.0039	0.7062
2.0044	0.7030
2.0049	0.7038
2.0054	0.7064
2.0059	0.7080
2.0064	0.7073
2.0069	0.7084
2.0074	0.7086
2.0079	0.7084
2.0084	0.7135
2.0089	0.7061
2.0094	0.7065
2.0099	0.7064
2.0104	0.7040
2.0109	0.7040
2.0114	0.7028
2.0119	0.7022
2.0124	0.7018
2.0129	0.6998
2.0134	0.7042
2.0139	0.6988
2.0144	0.7015
2.0149	0.7001
2.0155	0.6940
2.0160	0.6926
2.0165	0.6926
2.0170	0.6911
2.0175	0.6858
2.0180	0.6920
2.0185	0.6908
2.0190	0.6855
2.0195	0.6861
2.0200	0.6863
2.0205	0.6831
2.0210	0.6883
2.0215	0.6880
2.0220	0.6947
2.0225	0.6941
2.0230	0.6931
2.0235	0.6880
2.0240	0.6930
2.0245	0.6936
2.0250	0.6883
2.0255	0.6883
2.0260	0.6897
2.0265	0.6902
2.0270	0.6906
2.0275	0.6960
2.0280	0.6911
2.0285	0.6965
2.0290	0.6966
2.0295	0.7002
2.0300	0.6945
2.0305	0.6949
2.0310	0.6948
2.0315	0.6949
2.0320	0.6981
2.0325	0.6928
2.0330	0.6937
2.0335	0.6979
2.0340	0.6968
2.0345	0.6914
2.0350	0.6967
2.0355	0.6961
2.0360	0.6898
2.0365	0.6940
2.0370	0.6942
2.0375	0.6934
2.0380	0.6923
2.0385	0.6913
2.0390	0.6865
2.0395	0.6916
2.0400	0.6862
2.0405	0.6902
2.0410	0.6857
2.0415	0.6867
2.0420	0.6816
2.0425	0.6827
2.0430	0.6888
2.0435	0.6889
2.0440	0.6895
2.0445	0.6892
2.0450	0.6895
2.0455	0.6910
2.0460	0.6901
2.0465	0.6903
2.0470	0.6866
2.0475	0.6921
2.0480	0.6925
2.0485	0.6926
2.0490	0.6926
2.0495	0.6936
2.0500	0.6890
2.0506	0.6943
2.0511	0.6905
2.0516	0.6916
2.0521	0.6884
2.0526	0.6950
2.0531	0.6911
2.0536	0.7030
2.0541	0.7034
2.0546	0.7028
2.0551	0.7040
2.0556	0.6994
2.0561	0.7051
2.0566	0.7058
2.0571	0.7052
2.0576	0.7070
2.0581	0.7073
2.0586	0.7020
2.0591	0.7088
2.0596	0.7093
2.0601	0.7135
2.0606	0.7091
2.0611	0.7090
2.0616	0.7105
2.0621	0.7153
2.0626	0.7095
2.0631	0.7152
2.0636	0.7059
2.0641	0.7115
2.0646	0.7120
2.0651	0.7117
2.0656	0.7135
2.0661	0.7140
2.0666	0.7087
2.0671	0.7153
2.0676	0.7164
2.0681	0.7113
2.0686	0.7182
2.0691	0.7130
2.0696	0.7186
2.0701	0.7153
2.0706	0.7201
2.0711	0.7162
2.0716	0.7313
2.0721	0.7238
2.0726	0.7239
2.0731	0.7230
2.0736	0.7168
2.0741	0.7221
2.0746	0.7159
2.0751	0.7158
2.0756	0.7158
2.0761	0.7103
2.0766	0.7161
2.0771	0.7110
2.0776	0.7160
2.0781	0.7199
2.0786	0.7139
2.0791	0.7184
2.0796	0.7124
2.0801	0.7108
2.0806	0.7062
2.0811	0.7112
2.0816	0.7097
2.0821	0.7095
2.0826	0.7128
2.0831	0.7064
2.0836	0.7018
2.0841	0.7062
2.0846	0.7051
2.0851	0.7049
2.0857	0.7035
2.0862	0.7029
2.0867	0.7024
2.0872	0.7014
2.0877	0.6914
2.0882	0.6974
2.0887	0.6979
2.0892	0.6931
2.0897	0.6990
2.0902	0.6994
2.0907	0.6998
2.0912	0.7001
2.0917	0.7092
2.0922	0.7031
2.0927	0.7031
2.0932	0.7068
2.0937	0.7014
2.0942	0.7007
2.0947	0.7007
2.0952	0.7051
2.0957	0.6918
2.0962	0.6972
2.0967	0.6934
2.0972	0.6998
2.0977	0.7015
2.0982	0.7024
2.0987	0.7029
2.0992	0.7047
2.0997	0.7100
2.1002	0.7144
2.1007	0.7139
2.1012	0.7087
2.1017	0.7143
2.1022	0.7100
2.1027	0.7089
2.1032	0.7101
2.1037	0.7155
2.1042	0.7102
2.1047	0.7109
2.1052	0.7153
2.1057	0.7074
2.1062	0.7132
2.1067	0.7132
2.1072	0.7142
2.1077	0.7151
2.1082	0.7152
2.1087	0.7162
2.1092	0.7166
2.1097	0.7181
2.1102	0.7182
2.1107	0.7183
2.1112	0.7196
2.1117	0.7204
2.1122	0.7206
2.1127	0.7214
2.1132	0.7210
2.1137	0.7267
2.1142	0.7272
2.1147	0.7254
2.1152	0.7206
2.1157	0.7264
2.1162	0.7253
2.1167	0.7204
2.1172	0.7248
2.1177	0.7155
2.1182	0.7223
2.1187	0.7219
2.1192	0.7218
2.1197	0.7221
2.1203	0.7182
2.1208	0.7199
2.1213	0.7248
2.1218	0.7168
2.1223	0.7189
2.1228	0.7247
2.1233	0.7226
2.1238	0.7328
2.1243	0.7363
2.1248	0.7320
2.1253	0.7360
2.1258	0.7350
2.1263	0.7301
2.1268	0.7338
2.1273	0.7337
2.1278	0.7291
2.1283	0.7322
2.1288	0.7275
2.1293	0.7321
2.1298	0.7265
2.1303	0.7268
2.1308	0.7266
2.1313	0.7224
2.1318	0.7237
2.1323	0.7204
2.1328	0.7269
2.1333	0.7273
2.1338	0.7283
2.1343	0.7299
2.1348	0.7310
2.1353	0.7363
2.1358	0.7318
2.1363	0.7323
2.1368	0.7343
2.1373	0.7394
2.1378	0.7348
2.1383	0.7361
2.1388	0.7328
2.1393	0.7393
2.1398	0.7487
2.1403	0.7434
2.1408	0.7473
2.1413	0.7426
2.1418	0.7475
2.1423	0.7458
2.1428	0.7448
2.1433	0.7441
2.1438	0.7430
2.1443	0.7422
2.1448	0.7372
2.1453	0.7407
2.1458	0.7405
2.1463	0.7354
2.1468	0.7391
2.1473	0.7385
2.1478	0.7295
2.1483	0.7337
2.1488	0.7297
2.1493	0.7347
2.1498	0.7350
2.1503	0.7351
2.1508	0.7382
2.1513	0.7337
2.1518	0.7297
2.1523	0.7306
2.1528	0.7308
2.1533	0.7313
2.1538	0.7373
2.1543	0.7370
2.1548	0.7313
2.1554	0.7370
2.1559	0.7452
2.1564	0.7427
2.1569	0.7372
2.1574	0.7393
2.1579	0.7259
2.1584	0.7269
2.1589	0.7228
2.1594	0.7289
2.1599	0.7301
2.1604	0.7301
2.1609	0.7272
2.1614	0.7328
2.1619	0.7337
2.1624	0.7389
2.1629	0.7339
2.1634	0.7389
2.1639	0.7389
2.1644	0.7429
2.1649	0.7416
2.1654	0.7401
2.1659	0.7398
2.1664	0.7393
2.1669	0.7373
2.1674	0.7328
2.1679	0.7329
2.1684	0.7321
2.1689	0.7292
2.1694	0.7334
2.1699	0.7291
2.1704	0.7313
2.1709	0.7319
2.1714	0.7324
2.1719	0.7345
2.1724	0.7348
2.1729	0.7358
2.1734	0.7374
2.1739	0.7424
2.1744	0.7385
2.1749	0.7438
2.1754	0.7401
2.1759	0.7486
2.1764	0.7517
2.1769	0.7458
2.1774	0.7445
2.1779	0.7479
2.1784	0.7464
2.1789	0.7405
2.1794	0.7438
2.1799	0.7346
2.1804	0.7340
2.1809	0.7345
2.1814	0.7346
2.1819	0.7267
2.1824	0.7335
2.1829	0.7344
2.1834	0.7315
2.1839	0.7500
2.1844	0.7481
2.1849	0.7463
2.1854	0.7406
2.1859	0.7402
2.1864	0.7390
2.1869	0.7386
2.1874	0.7385
2.1879	0.7259
2.1884	0.7235
2.1889	0.7305
2.1894	0.7330
2.1899	0.7394
2.1905	0.7400
2.1910	0.7404
2.1915	0.7418
2.1920	0.7552
2.1925	0.7524
2.1930	0.7464
2.1935	0.7492
2.1940	0.7518
2.1945	0.7449
2.1950	0.7464
2.1955	0.7393
2.1960	0.7410
2.1965	0.7345
2.1970	0.7327
2.1975	0.7301
2.1980	0.7171
2.1985	0.7176
2.1990	0.7178
2.1995	0.7196
2.2000	0.7161
2.2005	0.7173
2.2010	0.7191
2.2015	0.7204
2.2020	0.7268
2.2025	0.7239
2.2030	0.7285
2.2035	0.7256
2.2040	0.7318
2.2045	0.7321
2.2050	0.7329
2.2055	0.7374
2.2060	0.7337
2.2065	0.7379
2.2070	0.7340
2.2075	0.7392
2.2080	0.7349
2.2085	0.7394
2.2090	0.7358
2.2095	0.7398
2.2100	0.7370
2.2105	0.7381
2.2110	0.7412
2.2115	0.7386
2.2120	0.7434
2.2125	0.7465
2.2130	0.7429
2.2135	0.7459
2.2140	0.7411
2.2145	0.7423
2.2150	0.7418
2.2155	0.7415
2.2160	0.7421
2.2165	0.7416
2.2170	0.7454
2.2175	0.7413
2.2180	0.7417
2.2185	0.7457
2.2190	0.7407
2.2195	0.7448
2.2200	0.7367
2.2205	0.7412
2.2210	0.7380
2.2215	0.7421
2.2220	0.7424
2.2225	0.7432
2.2230	0.7466
2.2235	0.7419
2.2240	0.7424
2.2245	0.7423
2.2251	0.7428
2.2256	0.7392
2.2261	0.7438
2.2266	0.7403
2.2271	0.7455
2.2276	0.7450
2.2281	0.7454
2.2286	0.7493
2.2291	0.7449
2.2296	0.7482
2.2301	0.7437
2.2306	0.7441
2.2311	0.7440
2.2316	0.7443
2.2321	0.7476
2.2326	0.7430
2.2331	0.7476
2.2336	0.7423
2.2341	0.7427
2.2346	0.7432
2.2351	0.7425
2.2356	0.7424
2.2361	0.7432
2.2366	0.7430
2.2371	0.7394
2.2376	0.7443
2.2381	0.7438
2.2386	0.7443
2.2391	0.7411
2.2396	0.7455
2.2401	0.7416
2.2406	0.7426
2.2411	0.7439
2.2416	0.7443
2.2421	0.7498
2.2426	0.7462
2.2431	0.7503
2.2436	0.7474
2.2441	0.7554
2.2446	0.7508
2.2451	0.7513
2.2456	0.7509
2.2461	0.7509
2.2466	0.7483
2.2471	0.7522
2.2476	0.7492
2.2481	0.7542
2.2486	0.7576
2.2491	0.7530
2.2496	0.7567
2.2501	0.7525
2.2506	0.7526
2.2511	0.7523
2.2516	0.7529
2.2521	0.7527
2.2526	0.7524
2.2531	0.7532
2.2536	0.7559
2.2541	0.7522
2.2546	0.7523
2.2551	0.7511
2.2556	0.7514
2.2561	0.7491
2.2566	0.7522
2.2571	0.7488
2.2576	0.7536
2.2581	0.7527
2.2586	0.7537
2.2591	0.7565
2.2596	0.7519
2.2602	0.7553
2.2607	0.7542
2.2612	0.7525
2.2617	0.7515
2.2622	0.7506
2.2627	0.7493
2.2632	0.7442
2.2637	0.7479
2.2642	0.7426
2.2647	0.7428
2.2652	0.7383
2.2657	0.7420
2.2662	0.7425
2.2667	0.7458
2.2672	0.7402
2.2677	0.7401
2.2682	0.7396
2.2687	0.7389
2.2692	0.7385
2.2697	0.7381
2.2702	0.7386
2.2707	0.7377
2.2712	0.7378
2.2717	0.7407
2.2722	0.7354
2.2727	0.7352
2.2732	0.7346
2.2737	0.7346
2.2742	0.7315
2.2747	0.7350
2.2752	0.7311
2.2757	0.7361
2.2762	0.7323
2.2767	0.7365
2.2772	0.7366
2.2777	0.7323
2.2782	0.7435
2.2787	0.7389
2.2792	0.7399
2.2797	0.7347
2.2802	0.7310
2.2807	0.7276
2.2812	0.7315
2.2817	0.7279
2.2822	0.7295
2.2827	0.7302
2.2832	0.7276
2.2837	0.7332
2.2842	0.7366
2.2847	0.7337
2.2852	0.7382
2.2857	0.7372
2.2862	0.7348
2.2867	0.7388
2.2872	0.7346
2.2877	0.7397
2.2882	0.7393
2.2887	0.7389
2.2892	0.7428
2.2897	0.7372
2.2902	0.7407
2.2907	0.7403
2.2912	0.7381
2.2917	0.7376
2.2922	0.7331
2.2927	0.7288
2.2932	0.7331
2.2937	0.7291
2.2942	0.7359
2.2947	0.7318
2.2953	0.7307
2.2958	0.7305
2.2963	0.7318
2.2968	0.7299
2.2973	0.7282
2.2978	0.7262
2.2983	0.7243
2.2988	0.7224
2.2993	0.7185
2.2998	0.7174
2.3003	0.7098
2.3008	0.7100
2.3013	0.7095
2.3018	0.7079
2.3023	0.7058
2.3028	0.7014
2.3033	0.7034
2.3038	0.7010
2.3043	0.6993
2.3048	0.6962
2.3053	0.6903
2.3058	0.6919
2.3063	0.6886
2.3068	0.6818
2.3073	0.6818
2.3078	0.6742
2.3083	0.6733
2.3088	0.6644
2.3093	0.6632
2.3098	0.6574
2.3103	0.6504
2.3108	0.6433
2.3113	0.6364
2.3118	0.6246
2.3123	0.6161
2.3128	0.6084
2.3133	0.5945
2.3138	0.5830
2.3143	0.5697
2.3148	0.5541
2.3153	0.5438
2.3158	0.5299
2.3163	0.5178
2.3168	0.4994
2.3173	0.4816
2.3178	0.4645
2.3183	0.4506
2.3188	0.4319
2.3193	0.4165
2.3198	0.3990
2.3203	0.3796
2.3208	0.3596
2.3213	0.3441
2.3218	0.3263
2.3223	0.3111
2.3228	0.2951
2.3233	0.2783
2.3238	0.2627
2.3243	0.2468
2.3248	0.2324
2.3253	0.2202
2.3258	0.2080
2.3263	0.1953
2.3268	0.1827
2.3273	0.1704
2.3278	0.1603
2.3283	0.1501
2.3288	0.1417
2.3293	0.1327
2.3298	0.1234
2.3303	0.1138
2.3308	0.1075
2.3313	0.1006
2.3318	0.0940
2.3323	0.0885
2.3328	0.0822
2.3333	0.0769
2.3338	0.0712
2.3343	0.0674
2.3348	0.0630
2.3353	0.0595
2.3358	0.0556
2.3363	0.0516
2.3368	0.0482
2.3373	0.0454
2.3378	0.0429
2.3383	0.0404
2.3388	0.0378
2.3393	0.0357
2.3398	0.0334
2.3403	0.0314
2.3408	0.0297
2.3413	0.0282
2.3418	0.0265
2.3423	0.0248
2.3428	0.0235
2.3433	0.0220
2.3438	0.0210
2.3443	0.0200
2.3448	0.0188
2.3453	0.0179
2.3458	0.0168
2.3463	0.0158
2.3468	0.0151
2.3473	0.0143
2.3478	0.0136
2.3483	0.0129
2.3488	0.0122
2.3493	0.0115
2.3498	0.0109
2.3503	0.0105
2.3508	0.0100
2.3513	0.0095
2.3518	0.0090
2.3523	0.0086
2.3528	0.0081
2.3533	0.0078
2.3538	0.0074
2.3543	0.0072
2.3548	0.0068
2.3553	0.0064
2.3558	0.0061
2.3563	0.0059
2.3568	0.0056
2.3573	0.0054
2.3578	0.0051
2.3583	0.0049
2.3588	0.0046
2.3593	0.0045
2.3598	0.0043
2.3603	0.0041
2.3608	0.0040
2.3613	0.0038
2.3618	0.0036
2.3623	0.0034
2.3628	0.0033
2.3633	0.0032
2.3638	0.0030
2.3643	0.0029
2.3648	0.0028
2.3653	0.0027
2.3658	0.0026
2.3663	0.0025
2.3668	0.0023
2.3673	0.0023
2.3678	0.0022
2.3683	0.0021
2.3688	0.0020
2.3693	0.0019
2.3698	0.0018
2.3703	0.0018
2.3708	0.0017
2.3713	0.0016
2.3718	0.0015
2.3723	0.0015
2.3728	0.0014
2.3733	0.0014
2.3738	0.0014
2.3743	0.0013
2.3748	0.0013
2.3753	0.0012
2.3758	0.0011
2.3763	0.0011
2.3768	0.0010
2.3773	0.0010
2.3778	0.0009
2.3783	0.0009
2.3788	0.0009
2.3793	0.0009
2.3798	0.0008
2.3803	0.0008
2.3808	0.0008
2.3813	0.0007
2.3818	0.0007
2.3823	0.0007
2.3828	0.0007
2.3833	0.0006
2.3838	0.0006
2.3843	0.0006
2.3848	0.0006
2.3853	0.0005
2.3858	0.0005
2.3863	0.0005
2.3868	0.0005
2.3873	0.0005
2.3878	0.0005
2.3883	0.0004
2.3888	0.0004
2.3893	0.0004
2.3898	0.0004
2.3903	0.0004
2.3908	0.0004
2.3913	0.0003
2.3918	0.0003
2.3923	0.0003
2.3928	0.0003
2.3933	0.0003
2.3938	0.0003
2.3943	0.0003
2.3948	0.0003
2.3953	0.0003
2.3958	0.0003
2.3963	0.0002
2.3968	0.0002
2.3973	0.0002
